Wavelength (nm)	N13 abs N
220.00	0.28886
220.25	0.29020
220.50	0.29298
220.75	0.29087
221.00	0.29447
221.25	0.29308
221.50	0.29382
221.75	0.29552
222.00	0.29692
222.25	0.29489
222.50	0.29711
222.75	0.29746
223.00	0.29630
223.25	0.29412
223.50	0.29557
223.75	0.29593
224.00	0.29510
224.25	0.29413
224.50	0.29577
224.75	0.29477
225.00	0.29558
225.25	0.29206
225.50	0.29347
225.75	0.29043
226.00	0.29071
226.25	0.28843
226.50	0.28786
226.75	0.28631
227.00	0.28804
227.25	0.28444
227.50	0.28557
227.75	0.28178
228.00	0.28420
228.25	0.28295
228.50	0.28088
228.75	0.28063
229.00	0.28122
229.25	0.27743
229.50	0.27782
229.75	0.27536
230.00	0.27430
230.25	0.27580
230.50	0.27618
230.75	0.27380
231.00	0.27424
231.25	0.27198
231.50	0.27226
231.75	0.27084
232.00	0.27152
232.25	0.27304
232.50	0.27024
232.75	0.26943
233.00	0.26909
233.25	0.27003
233.50	0.26924
233.75	0.27023
234.00	0.27013
234.25	0.27315
234.50	0.27297
234.75	0.27332
235.00	0.27473
235.25	0.27619
235.50	0.27762
235.75	0.27800
236.00	0.28050
236.25	0.28401
236.50	0.28481
236.75	0.28487
237.00	0.28963
237.25	0.29097
237.50	0.29417
237.75	0.29648
238.00	0.29817
238.25	0.30193
238.50	0.30375
238.75	0.30726
239.00	0.30948
239.25	0.31215
239.50	0.31440
239.75	0.31661
240.00	0.32206
240.25	0.32468
240.50	0.32603
240.75	0.32930
241.00	0.33392
241.25	0.33446
241.50	0.33983
241.75	0.34415
242.00	0.34723
242.25	0.34817
242.50	0.35154
242.75	0.35507
243.00	0.35804
243.25	0.36286
243.50	0.36628
243.75	0.36908
244.00	0.37309
244.25	0.37585
244.50	0.37727
244.75	0.38040
245.00	0.38295
245.25	0.38649
245.50	0.38725
245.75	0.38940
246.00	0.39123
246.25	0.39454
246.50	0.39601
246.75	0.39705
247.00	0.39929
247.25	0.40083
247.50	0.40118
247.75	0.40100
248.00	0.40025
248.25	0.40006
248.50	0.39965
248.75	0.39763
249.00	0.39533
249.25	0.39335
249.50	0.39148
249.75	0.38743
250.00	0.38386
250.25	0.37728
250.50	0.37349
250.75	0.36767
251.00	0.36077
251.25	0.35402
251.50	0.34545
251.75	0.33773
252.00	0.32885
252.25	0.32136
252.50	0.31260
252.75	0.30340
253.00	0.29487
253.25	0.28612
253.50	0.27685
253.75	0.26816
254.00	0.25952
254.25	0.24954
254.50	0.24280
254.75	0.23664
255.00	0.23372
255.25	0.22743
255.50	0.21942
255.75	0.21162
256.00	0.20559
256.25	0.19982
256.50	0.19231
256.75	0.18692
257.00	0.18123
257.25	0.17554
257.50	0.16892
257.75	0.16579
258.00	0.16172
258.25	0.15800
258.50	0.15416
258.75	0.15238
259.00	0.14863
259.25	0.14526
259.50	0.14270
259.75	0.14062
260.00	0.13732
260.25	0.13640
260.50	0.13499
260.75	0.13397
261.00	0.13256
261.25	0.13251
261.50	0.13099
261.75	0.13044
262.00	0.12932
262.25	0.12813
262.50	0.12896
262.75	0.12751
263.00	0.12826
263.25	0.12772
263.50	0.12818
263.75	0.12886
264.00	0.12835
264.25	0.12816
264.50	0.12879
264.75	0.13041
265.00	0.13033
265.25	0.13202
265.50	0.13163
265.75	0.13202
266.00	0.13345
266.25	0.13444
266.50	0.13455
266.75	0.13690
267.00	0.13839
267.25	0.13900
267.50	0.14005
267.75	0.14132
268.00	0.14137
268.25	0.14153
268.50	0.14278
268.75	0.14535
269.00	0.14674
269.25	0.14906
269.50	0.14968
269.75	0.15040
270.00	0.15225
270.25	0.15340
270.50	0.15459
270.75	0.15579
271.00	0.15666
271.25	0.15706
271.50	0.15808
271.75	0.15921
272.00	0.15971
272.25	0.16237
272.50	0.16208
272.75	0.16383
273.00	0.16356
273.25	0.16480
273.50	0.16442
273.75	0.16522
274.00	0.16531
274.25	0.16712
274.50	0.16677
274.75	0.16786
275.00	0.16805
275.25	0.16719
275.50	0.16915
275.75	0.16771
276.00	0.16816
276.25	0.16824
276.50	0.16849
276.75	0.16835
277.00	0.16762
277.25	0.16794
277.50	0.16768
277.75	0.16824
278.00	0.16706
278.25	0.16680
278.50	0.16667
278.75	0.16582
279.00	0.16612
279.25	0.16645
279.50	0.16425
279.75	0.16590
280.00	0.16482
280.25	0.16422
280.50	0.16459
280.75	0.16440
281.00	0.16531
281.25	0.16322
281.50	0.16329
281.75	0.16423
282.00	0.16234
282.25	0.16164
282.50	0.16131
282.75	0.16010
283.00	0.16082
283.25	0.15932
283.50	0.15968
283.75	0.15905
284.00	0.15826
284.25	0.15610
284.50	0.15492
284.75	0.15413
285.00	0.15419
285.25	0.15321
285.50	0.15252
285.75	0.15212
286.00	0.15008
286.25	0.15111
286.50	0.15084
286.75	0.14938
287.00	0.14883
287.25	0.14862
287.50	0.14525
287.75	0.14576
288.00	0.14354
288.25	0.14440
288.50	0.14377
288.75	0.14225
289.00	0.14226
289.25	0.14246
289.50	0.14145
289.75	0.14217
290.00	0.14153
290.25	0.14081
290.50	0.14064
290.75	0.13990
291.00	0.13885
291.25	0.14015
291.50	0.14005
291.75	0.13879
292.00	0.13936
292.25	0.13891
292.50	0.13907
292.75	0.13811
293.00	0.13858
293.25	0.13788
293.50	0.13688
293.75	0.13630
294.00	0.13619
294.25	0.13543
294.50	0.13609
294.75	0.13747
295.00	0.13541
295.25	0.13519
295.50	0.13371
295.75	0.13384
296.00	0.13234
296.25	0.13200
296.50	0.13110
296.75	0.13130
297.00	0.13050
297.25	0.12812
297.50	0.12809
297.75	0.12574
298.00	0.12542
298.25	0.12270
298.50	0.12246
298.75	0.12025
299.00	0.11884
299.25	0.11829
299.50	0.11476
299.75	0.11343
300.00	0.11247
300.25	0.11128
300.50	0.10949
300.75	0.10909
301.00	0.10687
301.25	0.10383
301.50	0.10272
301.75	0.10044
302.00	0.099155
302.25	0.097147
302.50	0.095770
302.75	0.093416
303.00	0.090315
303.25	0.089311
303.50	0.087364
303.75	0.085811
304.00	0.084176
304.25	0.082772
304.50	0.079441
304.75	0.079902
305.00	0.077168
305.25	0.075397
305.50	0.072535
305.75	0.070398
306.00	0.068803
306.25	0.068315
306.50	0.068654
306.75	0.067596
307.00	0.064536
307.25	0.062935
307.50	0.061137
307.75	0.060106
308.00	0.057786
308.25	0.056585
308.50	0.055222
308.75	0.054279
309.00	0.053478
309.25	0.052583
309.50	0.051416
309.75	0.051070
310.00	0.054225
310.25	0.048078
310.50	0.048546
310.75	0.050439
311.00	0.051416
311.25	0.046871
311.50	0.047481
311.75	0.049666
312.00	0.047542
312.25	0.040846
312.50	0.048268
312.75	0.044815
313.00	0.044293
313.25	0.042936
313.50	0.045785
313.75	0.044625
314.00	0.041518
314.25	0.043004
314.50	0.040507
314.75	0.038615
315.00	0.037081
315.25	0.038038
315.50	0.036111
315.75	0.035976
316.00	0.038927
316.25	0.036376
316.50	0.037217
316.75	0.037108
317.00	0.036695
317.25	0.034008
317.50	0.037448
317.75	0.033757
318.00	0.036695
318.25	0.036769
318.50	0.034822
318.75	0.035881
319.00	0.037794
319.25	0.035148
319.50	0.032699
319.75	0.038615
320.00	0.038011
320.25	0.030121
320.50	0.037448
320.75	0.035786
321.00	0.036396
321.25	0.032536
321.50	0.033126
321.75	0.034164
322.00	0.040168
322.25	0.034788
322.50	0.035989
322.75	0.033289
323.00	0.033784
323.25	0.039598
323.50	0.038832
323.75	0.037665
324.00	0.036213
324.25	0.037027
324.50	0.039388
324.75	0.039591
325.00	0.039205
325.25	0.043194
325.50	0.041294
325.75	0.038994
326.00	0.037990
326.25	0.036342
326.50	0.041376
326.75	0.041525
327.00	0.043139
327.25	0.042434
327.50	0.042624
327.75	0.043146
328.00	0.042963
328.25	0.044754
328.50	0.044564
328.75	0.047285
329.00	0.042597
329.25	0.046884
329.50	0.048350
329.75	0.046626
330.00	0.047495
330.25	0.049435
330.50	0.052820
330.75	0.051056
331.00	0.051952
331.25	0.052718
331.50	0.047020
331.75	0.051470
332.00	0.052834
332.25	0.055378
332.50	0.052861
332.75	0.049516
333.00	0.055147
333.25	0.051301
333.50	0.054225
333.75	0.057515
334.00	0.054394
334.25	0.056714
334.50	0.053519
334.75	0.054543
335.00	0.054252
335.25	0.051681
335.50	0.055948
335.75	0.054828
336.00	0.055514
336.25	0.054442
336.50	0.056721
336.75	0.054781
337.00	0.060513
337.25	0.058960
337.50	0.059435
337.75	0.060194
338.00	0.058648
338.25	0.061490
338.50	0.061443
338.75	0.060880
339.00	0.062847
339.25	0.064842
339.50	0.064753
339.75	0.063084
340.00	0.065133
340.25	0.069699
340.50	0.070879
340.75	0.072887
341.00	0.070072
341.25	0.073301
341.50	0.073627
341.75	0.074733
342.00	0.073762
342.25	0.077975
342.50	0.077338
342.75	0.079366
343.00	0.083328
343.25	0.083749
343.50	0.083389
343.75	0.085187
344.00	0.087873
344.25	0.087853
344.50	0.089888
344.75	0.091448
345.00	0.096082
345.25	0.093775
345.50	0.092120
345.75	0.094026
346.00	0.095125
346.25	0.096496
346.50	0.099942
346.75	0.096855
347.00	0.097249
347.25	0.097852
347.50	0.097167
347.75	0.097052
348.00	0.096536
348.25	0.098260
348.50	0.097615
348.75	0.097778
349.00	0.096984
349.25	0.098042
349.50	0.099074
349.75	0.094759
350.00	0.095736
350.25	0.090838
350.50	0.091279
350.75	0.087378
351.00	0.091686
351.25	0.088117
351.50	0.087419
351.75	0.082317
352.00	0.083701
352.25	0.081991
352.50	0.078165
352.75	0.079034
353.00	0.075845
353.25	0.072426
353.50	0.071659
353.75	0.073227
354.00	0.070018
354.25	0.067101
354.50	0.065500
354.75	0.066002
355.00	0.064143
355.25	0.061456
355.50	0.060330
355.75	0.055642
356.00	0.056965
356.25	0.059408
356.50	0.054984
356.75	0.053336
357.00	0.050819
357.25	0.052875
357.50	0.051063
357.75	0.048580
358.00	0.044863
358.25	0.043614
358.50	0.043689
358.75	0.044347
359.00	0.041070
359.25	0.041613
359.50	0.038445
359.75	0.038872
360.00	0.038866
360.25	0.040182
360.50	0.038764
360.75	0.035799
361.00	0.034198
361.25	0.032339
361.50	0.033513
361.75	0.034293
362.00	0.033730
362.25	0.027007
362.50	0.031349
362.75	0.031797
363.00	0.030718
363.25	0.031593
363.50	0.031959
363.75	0.027007
364.00	0.028622
364.25	0.024897
364.50	0.026770
364.75	0.025779
365.00	0.024314
365.25	0.026030
365.50	0.026756
365.75	0.027509
366.00	0.023961
366.25	0.021811
366.50	0.021919
366.75	0.021668
367.00	0.022882
367.25	0.018812
367.50	0.022489
367.75	0.021186
368.00	0.023045
368.25	0.019267
368.50	0.019504
368.75	0.020366
369.00	0.019952
369.25	0.020169
369.50	0.022543
369.75	0.020386
370.00	0.019117
370.25	0.020128
370.50	0.019117
370.75	0.016784
371.00	0.018181
371.25	0.017828
371.50	0.018765
371.75	0.018439
372.00	0.016899
372.25	0.016702
372.50	0.014986
372.75	0.018914
373.00	0.017157
373.25	0.019640
373.50	0.016363
373.75	0.017896
374.00	0.018391
374.25	0.016417
374.50	0.015888
374.75	0.016126
375.00	0.015983
375.25	0.015040
375.50	0.017021
375.75	0.016974
376.00	0.017272
376.25	0.017313
376.50	0.017211
376.75	0.018005
377.00	0.017828
377.25	0.016051
377.50	0.017184
377.75	0.017231
378.00	0.017055
378.25	0.014932
378.50	0.018676
378.75	0.017469
379.00	0.017136
379.25	0.017197
379.50	0.015698
379.75	0.018351
380.00	0.017503
380.25	0.017238
380.50	0.018073
380.75	0.016933
381.00	0.017245
381.25	0.016784
381.50	0.018473
381.75	0.016153
382.00	0.017917
382.25	0.017170
382.50	0.016417
382.75	0.016682
383.00	0.015875
383.25	0.018873
383.50	0.019979
383.75	0.014966
384.00	0.019368
384.25	0.019395
384.50	0.015590
384.75	0.018792
385.00	0.016187
385.25	0.017116
385.50	0.017625
385.75	0.017564
386.00	0.018473
386.25	0.017530
386.50	0.017435
386.75	0.017333
387.00	0.017754
387.25	0.018473
387.50	0.018303
387.75	0.017937
388.00	0.019165
388.25	0.018073
388.50	0.017157
388.75	0.018086
389.00	0.017903
389.25	0.018093
389.50	0.020054
389.75	0.016729
390.00	0.019056
390.25	0.016058
390.50	0.014877
390.75	0.015217
391.00	0.016363
391.25	0.017455
391.50	0.016200
391.75	0.016302
392.00	0.016505
392.25	0.019762
392.50	0.015345
392.75	0.017618
393.00	0.014959
393.25	0.019009
393.50	0.015834
393.75	0.017279
394.00	0.016600
394.25	0.017028
394.50	0.018127
394.75	0.016892
395.00	0.015447
395.25	0.015420
395.50	0.016037
395.75	0.018012
396.00	0.016702
396.25	0.016119
396.50	0.015413
396.75	0.015725
397.00	0.015393
397.25	0.016790
397.50	0.014402
397.75	0.014518
398.00	0.014735
398.25	0.014653
398.50	0.014199
398.75	0.014708
399.00	0.016492
399.25	0.013290
399.50	0.014966
399.75	0.015698
400.00	0.015610
400.25	0.013378
400.50	0.014158
400.75	0.016051
401.00	0.013229
401.25	0.014369
401.50	0.012354
401.75	0.013005
402.00	0.013595
402.25	0.013636
402.50	0.013554
402.75	0.014111
403.00	0.014809
403.25	0.014124
403.50	0.014029
403.75	0.011716
404.00	0.012862
404.25	0.013147
404.50	0.012367
404.75	0.013236
405.00	0.012055
405.25	0.011431
405.50	0.013690
405.75	0.010943
406.00	0.012245
406.25	0.014653
406.50	0.012489
406.75	0.012835
407.00	0.012937
407.25	0.011960
407.50	0.012028
407.75	0.012143
408.00	0.011173
408.25	0.011519
408.50	0.012876
408.75	0.012333
409.00	0.011784
409.25	0.013466
409.50	0.012259
409.75	0.011214
410.00	0.013358
410.25	0.012367
410.50	0.011194
410.75	0.011329
411.00	0.011384
411.25	0.012313
411.50	0.012082
411.75	0.010888
412.00	0.010739
412.25	0.012801
412.50	0.012951
412.75	0.011214
413.00	0.010162
413.25	0.011506
413.50	0.010142
413.75	0.010678
414.00	0.011105
414.25	0.011390
414.50	0.011696
414.75	0.010006
415.00	0.010549
415.25	0.010142
415.50	0.010162
415.75	0.0099114
416.00	0.0092805
416.25	0.010590
416.50	0.010542
416.75	0.011017
417.00	0.010454
417.25	0.0091516
417.50	0.010040
417.75	0.0096061
418.00	0.0093891
418.25	0.0099046
418.50	0.0092941
418.75	0.0089820
419.00	0.0085818
419.25	0.0093891
419.50	0.0090092
419.75	0.0081747
420.00	0.0076252
420.25	0.0079305
420.50	0.0083715
420.75	0.0088938
421.00	0.0088260
421.25	0.0076727
421.50	0.0085750
421.75	0.0097283
422.00	0.0087174
422.25	0.0071775
422.50	0.0080187
422.75	0.0067840
423.00	0.0076388
423.25	0.0079509
423.50	0.0078627
423.75	0.0092466
424.00	0.0081679
424.25	0.0094365
424.50	0.0076524
424.75	0.0078084
425.00	0.0069061
425.25	0.0083375
425.50	0.0080933
425.75	0.0069129
426.00	0.0065873
426.25	0.0078830
426.50	0.0084054
426.75	0.0075574
427.00	0.0085411
427.25	0.0074963
427.50	0.0077677
427.75	0.0099250
428.00	0.0070621
428.25	0.0082968
428.50	0.0064516
428.75	0.0083850
429.00	0.0074081
429.25	0.0075438
429.50	0.0083375
429.75	0.010122
430.00	0.0090566
430.25	0.0091109
430.50	0.0078898
430.75	0.0080323
431.00	0.0078220
431.25	0.0073742
431.50	0.0064991
431.75	0.0084325
432.00	0.0083511
432.25	0.0083172
432.50	0.0094094
432.75	0.010475
433.00	0.0099928
433.25	0.0084393
433.50	0.0081340
433.75	0.0081747
434.00	0.0096672
434.25	0.0090024
434.50	0.0088124
434.75	0.0097350
435.00	0.0096265
435.25	0.012014
435.50	0.010230
435.75	0.010522
436.00	0.010569
436.25	0.011275
436.50	0.0099861
436.75	0.0099996
437.00	0.010251
437.25	0.010610
437.50	0.011492
437.75	0.012673
438.00	0.013622
438.25	0.012028
438.50	0.011696
438.75	0.0097825
439.00	0.012829
439.25	0.013127
439.50	0.012713
439.75	0.013215
440.00	0.013107
440.25	0.013175
440.50	0.011892
440.75	0.013907
441.00	0.013541
441.25	0.013073
441.50	0.014789
441.75	0.014416
442.00	0.015461
442.25	0.015237
442.50	0.014918
442.75	0.014959
443.00	0.016248
443.25	0.015841
443.50	0.016404
443.75	0.016071
444.00	0.018079
444.25	0.016872
444.50	0.017394
444.75	0.017754
445.00	0.016594
445.25	0.017740
445.50	0.019803
445.75	0.016336
446.00	0.016953
446.25	0.019626
446.50	0.021458
446.75	0.020481
447.00	0.022075
447.25	0.021254
447.50	0.021397
447.75	0.022272
448.00	0.021634
448.25	0.022204
448.50	0.023072
448.75	0.024266
449.00	0.022726
449.25	0.024531
449.50	0.024002
449.75	0.026057
450.00	0.025949
450.25	0.027136
450.50	0.026946
450.75	0.027618
451.00	0.026492
451.25	0.027584
451.50	0.028140
451.75	0.028622
452.00	0.030121
452.25	0.030548
452.50	0.030318
452.75	0.031783
453.00	0.031607
453.25	0.031518
453.50	0.032828
453.75	0.032869
454.00	0.033004
454.25	0.033201
454.50	0.034381
454.75	0.032902
455.00	0.035670
455.25	0.035813
455.50	0.036288
455.75	0.037482
456.00	0.038208
456.25	0.037502
456.50	0.038845
456.75	0.040514
457.00	0.040901
457.25	0.040724
457.50	0.041267
457.75	0.040826
458.00	0.042617
458.25	0.041776
458.50	0.043798
458.75	0.043716
459.00	0.044937
459.25	0.046437
459.50	0.046559
459.75	0.047223
460.00	0.047156
460.25	0.049232
460.50	0.047671
460.75	0.050453
461.00	0.049808
461.25	0.050080
461.50	0.050609
461.75	0.052956
462.00	0.053641
462.25	0.053675
462.50	0.055615
462.75	0.054571
463.00	0.055988
463.25	0.056938
463.50	0.057271
463.75	0.057182
464.00	0.058180
464.25	0.058716
464.50	0.058885
464.75	0.061280
465.00	0.061619
465.25	0.063132
465.50	0.063132
465.75	0.063430
466.00	0.064224
466.25	0.065167
466.50	0.065676
466.75	0.065832
467.00	0.068220
467.25	0.068342
467.50	0.068267
467.75	0.069984
468.00	0.069963
468.25	0.072148
468.50	0.072901
468.75	0.072799
469.00	0.073640
469.25	0.075628
469.50	0.076612
469.75	0.077161
470.00	0.076279
470.25	0.079142
470.50	0.080228
470.75	0.082195
471.00	0.082419
471.25	0.084793
471.50	0.084563
471.75	0.086781
472.00	0.087242
472.25	0.088429
472.50	0.089691
472.75	0.090282
473.00	0.093497
473.25	0.094087
473.50	0.094644
473.75	0.098260
474.00	0.099352
474.25	0.10004
474.50	0.10255
474.75	0.10264
475.00	0.10538
475.25	0.10679
475.50	0.11019
475.75	0.10945
476.00	0.11276
476.25	0.11652
476.50	0.11713
476.75	0.11889
477.00	0.12141
477.25	0.12413
477.50	0.12517
477.75	0.12734
478.00	0.13022
478.25	0.13183
478.50	0.13433
478.75	0.13556
479.00	0.13863
479.25	0.14141
479.50	0.14439
479.75	0.14438
480.00	0.14767
480.25	0.14963
480.50	0.15296
480.75	0.15471
481.00	0.15753
481.25	0.16020
481.50	0.16151
481.75	0.16376
482.00	0.16590
482.25	0.17026
482.50	0.17118
482.75	0.17550
483.00	0.17924
483.25	0.17997
483.50	0.18255
483.75	0.18698
484.00	0.18950
484.25	0.19095
484.50	0.19340
484.75	0.19660
485.00	0.19890
485.25	0.20377
485.50	0.20448
485.75	0.20902
486.00	0.21165
486.25	0.21314
486.50	0.21562
486.75	0.21920
487.00	0.22180
487.25	0.22373
487.50	0.22762
487.75	0.23000
488.00	0.23304
488.25	0.23646
488.50	0.23984
488.75	0.24205
489.00	0.24291
489.25	0.24693
489.50	0.24981
489.75	0.25163
490.00	0.25291
490.25	0.25700
490.50	0.25982
490.75	0.26096
491.00	0.26411
491.25	0.26620
491.50	0.26825
491.75	0.27153
492.00	0.27364
492.25	0.27450
492.50	0.27641
492.75	0.28061
493.00	0.28285
493.25	0.28401
493.50	0.28624
493.75	0.28591
494.00	0.29006
494.25	0.28924
494.50	0.29101
494.75	0.29293
495.00	0.29395
495.25	0.29608
495.50	0.29917
495.75	0.30070
496.00	0.30295
496.25	0.30274
496.50	0.30567
496.75	0.30609
497.00	0.30795
497.25	0.30873
497.50	0.30987
497.75	0.31022
498.00	0.31177
498.25	0.31440
498.50	0.31553
498.75	0.31628
499.00	0.31902
499.25	0.32020
499.50	0.32133
499.75	0.32442
500.00	0.32330
500.25	0.32610
500.50	0.32545
500.75	0.32879
501.00	0.32962
501.25	0.33231
501.50	0.33420
501.75	0.33520
502.00	0.33697
502.25	0.33830
502.50	0.34034
502.75	0.34347
503.00	0.34505
503.25	0.34651
503.50	0.34821
503.75	0.34996
504.00	0.35191
504.25	0.35447
504.50	0.35860
504.75	0.36026
505.00	0.36275
505.25	0.36516
505.50	0.36847
505.75	0.37111
506.00	0.37359
506.25	0.37803
506.50	0.37944
506.75	0.38423
507.00	0.38586
507.25	0.39113
507.50	0.39629
507.75	0.39882
508.00	0.40343
508.25	0.40690
508.50	0.41304
508.75	0.41694
509.00	0.42072
509.25	0.42715
509.50	0.42923
509.75	0.43554
510.00	0.44304
510.25	0.44638
510.50	0.45023
510.75	0.45856
511.00	0.46467
511.25	0.47093
511.50	0.47657
511.75	0.48316
512.00	0.48898
512.25	0.49402
512.50	0.50297
512.75	0.51077
513.00	0.51735
513.25	0.52395
513.50	0.52997
513.75	0.53822
514.00	0.54358
514.25	0.55321
514.50	0.56085
514.75	0.56807
515.00	0.57606
515.25	0.58760
515.50	0.59815
515.75	0.60788
516.00	0.61850
516.25	0.62814
516.50	0.63721
516.75	0.64610
517.00	0.65454
517.25	0.66260
517.50	0.67142
517.75	0.68227
518.00	0.69048
518.25	0.69851
518.50	0.70655
518.75	0.71487
519.00	0.72607
519.25	0.73060
519.50	0.74272
519.75	0.75141
